          PHOTOELECTRIC EFFECT ---- PH316

                      Date: 04-09-11
           Program version: 04-06-02

          Photocathode material no -----> 1

          Data has following form:

          Wavelength in Angstroms
          Retarding Voltage (V)      Photocurrent (Amps)




   2000.00

   0.00000 ,  7.79870E-10
   0.10000 ,  9.00761E-10
   0.20000 ,  8.90964E-10
   0.30000 ,  8.74715E-10
   0.40000 ,  8.52134E-10
   0.50000 ,  8.23385E-10
   0.60000 ,  7.88680E-10
   0.70000 ,  7.48273E-10
   0.80000 ,  7.02461E-10
   0.90000 ,  6.51578E-10
   1.00000 ,  5.95999E-10
   1.10000 ,  5.36130E-10
   1.20000 ,  4.72411E-10
   1.30000 ,  4.04081E-10
   1.40000 ,  3.24004E-10
   1.50000 ,  2.51856E-10
   1.60000 ,  1.77866E-10
   1.70000 ,  1.02576E-10
   1.80000 ,  2.65376E-11
   1.90000 ,  5.45699E-13


   2000.00

   0.00000 ,  9.18464E-10
   0.10000 ,  1.00592E-09
   0.20000 ,  9.94818E-10
   0.30000 ,  9.00407E-10
   0.40000 ,  8.77511E-10
   0.50000 ,  8.47474E-10
   0.60000 ,  8.11213E-10
   0.70000 ,  7.68994E-10
   0.80000 ,  7.21128E-10
   0.90000 ,  6.67964E-10
   1.00000 ,  6.09893E-10
   1.10000 ,  5.47340E-10
   1.20000 ,  4.80764E-10
   1.30000 ,  4.10653E-10
   1.40000 ,  3.37520E-10
   1.50000 ,  2.61902E-10
   1.60000 ,  1.84354E-10
   1.70000 ,  1.04584E-10
   1.80000 , -1.37508E-11
   1.90000 , -4.07738E-11


   2000.00

   0.00000 ,  8.89330E-10
   0.10000 ,  9.15260E-10
   0.20000 ,  9.05507E-10
   0.30000 ,  8.89331E-10
   0.40000 ,  8.66850E-10
   0.50000 ,  8.38231E-10
   0.60000 ,  8.03681E-10
   0.70000 ,  7.63456E-10
   0.80000 ,  7.17849E-10
   0.90000 ,  6.67194E-10
   1.00000 ,  6.11864E-10
   1.10000 ,  5.52264E-10
   1.20000 ,  4.88831E-10
   1.30000 ,  4.22809E-10
   1.40000 ,  3.46860E-10
   1.50000 ,  2.74668E-10
   1.60000 ,  2.00633E-10
   1.70000 ,  1.25298E-10
   1.80000 ,  4.92142E-11
   1.90000 ,  2.32066E-11


   2000.00

   0.00000 ,  8.93361E-10
   0.10000 ,  9.99517E-10
   0.20000 ,  9.89712E-10
   0.30000 ,  9.61784E-10
   0.40000 ,  8.18983E-10
   0.50000 ,  7.90598E-10
   0.60000 ,  7.56332E-10
   0.70000 ,  7.16436E-10
   0.80000 ,  6.71203E-10
   0.90000 ,  6.20964E-10
   1.00000 ,  5.66087E-10
   1.10000 ,  5.06976E-10
   1.20000 ,  4.44062E-10
   1.30000 ,  3.77808E-10
   1.40000 ,  3.08699E-10
   1.50000 ,  2.37241E-10
   1.60000 ,  1.64862E-10
   1.70000 ,  1.10714E-10
   1.80000 ,  3.50163E-11
   1.90000 ,  9.14054E-12


   2000.00

   0.00000 ,  6.60100E-10
   0.10000 ,  6.40557E-10
   0.20000 ,  6.32453E-10
   0.30000 ,  6.19012E-10
   0.40000 ,  6.00332E-10
   0.50000 ,  5.76551E-10
   0.60000 ,  5.47844E-10
   0.70000 ,  5.14419E-10
   0.80000 ,  4.76523E-10
   0.90000 ,  4.34433E-10
   1.00000 ,  3.88458E-10
   1.10000 ,  3.38935E-10
   1.20000 ,  2.86227E-10
   1.30000 ,  2.79643E-10
   1.40000 ,  2.39151E-10
   1.50000 ,  1.70308E-10
   1.60000 ,  9.97074E-11
   1.70000 ,  2.78664E-11
   1.80000 , -4.46884E-11
   1.90000 , -6.94897E-11


   2000.00

   0.00000 ,  9.20903E-10
   0.10000 ,  9.21047E-10
   0.20000 ,  9.10911E-10
   0.30000 ,  8.94101E-10
   0.40000 ,  8.70739E-10
   0.50000 ,  8.40998E-10
   0.60000 ,  8.05094E-10
   0.70000 ,  7.63292E-10
   0.80000 ,  7.15897E-10
   0.90000 ,  6.63257E-10
   1.00000 ,  5.96786E-10
   1.10000 ,  5.35543E-10
   1.20000 ,  4.70600E-10
   1.30000 ,  4.02209E-10
   1.40000 ,  3.30870E-10
   1.50000 ,  2.57107E-10
   1.60000 ,  1.81461E-10
   1.70000 ,  1.04485E-10
   1.80000 ,  2.67454E-11
   1.90000 ,  1.71644E-13


   2000.00

   0.00000 ,  8.91442E-10
   0.10000 ,  8.89425E-10
   0.20000 ,  9.08922E-10
   0.30000 ,  9.93042E-10
   0.40000 ,  9.69770E-10
   0.50000 ,  9.40143E-10
   0.60000 ,  9.04377E-10
   0.70000 ,  8.62735E-10
   0.80000 ,  8.15522E-10
   0.90000 ,  7.63084E-10
   1.00000 ,  7.05806E-10
   1.10000 ,  6.44107E-10
   1.20000 ,  5.78440E-10
   1.30000 ,  5.09286E-10
   1.40000 ,  4.37152E-10
   1.50000 ,  3.59225E-10
   1.60000 ,  2.54821E-10
   1.70000 ,  1.77989E-10
   1.80000 ,  1.00393E-10
   1.90000 ,  7.38686E-11


   2000.00

   0.00000 ,  9.32635E-10
   0.10000 ,  8.87813E-10
   0.20000 ,  8.78039E-10
   0.30000 ,  8.61828E-10
   0.40000 ,  8.39301E-10
   0.50000 ,  8.10621E-10
   0.60000 ,  7.75998E-10
   0.70000 ,  7.35688E-10
   0.80000 ,  6.89985E-10
   0.90000 ,  6.39223E-10
   1.00000 ,  5.83777E-10
   1.10000 ,  5.24051E-10
   1.20000 ,  4.74138E-10
   1.30000 ,  4.28663E-10
   1.40000 ,  3.56765E-10
   1.50000 ,  2.82423E-10
   1.60000 ,  2.06184E-10
   1.70000 ,  1.28605E-10
   1.80000 ,  5.02548E-11
   1.90000 ,  2.34726E-11


   2000.00

   0.00000 ,  8.71361E-10
   0.10000 ,  9.52894E-10
   0.20000 ,  9.43134E-10
   0.30000 ,  9.26948E-10
   0.40000 ,  9.04453E-10
   0.50000 ,  8.75816E-10
   0.60000 ,  8.41244E-10
   0.70000 ,  8.00993E-10
   0.80000 ,  7.55357E-10
   0.90000 ,  7.04670E-10
   1.00000 ,  6.49305E-10
   1.10000 ,  5.89667E-10
   1.20000 ,  5.26193E-10
   1.30000 ,  4.60036E-10
   1.40000 ,  3.74207E-10
   1.50000 ,  3.01987E-10
   1.60000 ,  2.27922E-10
   1.70000 ,  1.52557E-10
   1.80000 ,  7.64423E-11
   1.90000 ,  5.04242E-11


   2000.00

   0.00000 ,  8.93306E-10
   0.10000 ,  8.78035E-10
   0.20000 ,  8.68238E-10
   0.30000 ,  8.51991E-10
   0.40000 ,  5.96327E-10
   0.50000 ,  5.78097E-10
   0.60000 ,  5.53010E-10
   0.70000 ,  5.23802E-10
   0.80000 ,  4.90686E-10
   0.90000 ,  4.53905E-10
   1.00000 ,  4.13729E-10
   1.10000 ,  3.70453E-10
   1.20000 ,  3.24393E-10
   1.30000 ,  2.75887E-10
   1.40000 ,  2.25291E-10
   1.50000 ,  1.72976E-10
   1.60000 ,  1.19324E-10
   1.70000 ,  9.33926E-11
   1.80000 ,  2.57947E-11
   1.90000 , -3.53874E-13


   2000.00

   0.00000 ,  8.99947E-10
   0.10000 ,  8.92439E-10
   0.20000 ,  8.82642E-10
   0.30000 ,  8.66394E-10
   0.40000 ,  8.43813E-10
   0.50000 ,  8.15066E-10
   0.60000 ,  7.80363E-10
   0.70000 ,  7.39959E-10
   0.80000 ,  5.96478E-10
   0.90000 ,  5.48421E-10
   1.00000 ,  5.00694E-10
   1.10000 ,  4.49283E-10
   1.20000 ,  3.94565E-10
   1.30000 ,  3.36942E-10
   1.40000 ,  2.76836E-10
   1.50000 ,  2.14688E-10
   1.60000 ,  1.50953E-10
   1.70000 ,  8.60976E-11
   1.80000 ,  2.05982E-11
   1.90000 , -1.79131E-12


   2000.00

   0.00000 ,  1.02883E-09
   0.10000 ,  9.05309E-10
   0.20000 ,  8.95414E-10
   0.30000 ,  8.79004E-10
   0.40000 ,  8.56197E-10
   0.50000 ,  8.27163E-10
   0.60000 ,  7.92112E-10
   0.70000 ,  7.51303E-10
   0.80000 ,  7.05035E-10
   0.90000 ,  6.53646E-10
   1.00000 ,  5.91672E-10
   1.10000 ,  5.25363E-10
   1.20000 ,  4.61645E-10
   1.30000 ,  3.94545E-10
   1.40000 ,  3.24552E-10
   1.50000 ,  2.52181E-10
   1.60000 ,  1.77963E-10
   1.70000 ,  1.02440E-10
   1.80000 ,  2.61670E-11
   1.90000 ,  9.47706E-14


   2000.00

   0.00000 ,  8.49059E-10
   0.10000 ,  8.89811E-10
   0.20000 ,  8.73483E-10
   0.30000 ,  8.24468E-10
   0.40000 ,  8.02061E-10
   0.50000 ,  7.73535E-10
   0.60000 ,  7.39099E-10
   0.70000 ,  6.99005E-10
   0.80000 ,  6.53547E-10
   0.90000 ,  6.03058E-10
   1.00000 ,  5.47910E-10
   1.10000 ,  4.88504E-10
   1.20000 ,  4.25278E-10
   1.30000 ,  3.58695E-10
   1.40000 ,  2.89243E-10
   1.50000 ,  2.20532E-10
   1.60000 ,  2.04503E-10
   1.70000 ,  1.28634E-10
   1.80000 ,  5.20109E-11
   1.90000 ,  2.58190E-11


   2000.00

   0.00000 ,  9.02025E-10
   0.10000 ,  8.14716E-10
   0.20000 ,  8.04921E-10
   0.30000 ,  7.88676E-10
   0.40000 ,  7.66100E-10
   0.50000 ,  7.37359E-10
   0.60000 ,  6.97403E-10
   0.70000 ,  7.23356E-10
   0.80000 ,  6.77865E-10
   0.90000 ,  6.27339E-10
   1.00000 ,  5.72149E-10
   1.10000 ,  5.12700E-10
   1.20000 ,  4.49427E-10
   1.30000 ,  3.82795E-10
   1.40000 ,  3.13291E-10
   1.50000 ,  2.41425E-10
   1.60000 ,  1.67724E-10
   1.70000 ,  9.27286E-11
   1.80000 ,  1.69880E-11
   1.90000 , -8.90224E-12


   2000.00

   0.00000 ,  1.05913E-09
   0.10000 ,  1.13864E-09
   0.20000 ,  1.12698E-09
   0.30000 ,  1.10765E-09
   0.40000 ,  1.08079E-09
   0.50000 ,  1.04658E-09
   0.60000 ,  8.59862E-10
   0.70000 ,  7.48827E-10
   0.80000 ,  7.02888E-10
   0.90000 ,  6.51865E-10
   1.00000 ,  5.96133E-10
   1.10000 ,  5.36099E-10
   1.20000 ,  4.72203E-10
   1.30000 ,  4.04915E-10
   1.40000 ,  3.34728E-10
   1.50000 ,  2.62155E-10
   1.60000 ,  1.87729E-10
   1.70000 ,  1.11996E-10
   1.80000 ,  3.55101E-11
   1.90000 ,  9.36510E-12
